  Detailed Percentile spectrum:
       Value   Percentile   TotalCount 1/(1-Percentile)

       0.725     0.000000            1         1.00
      16.159     0.100000        14570         1.11
      22.047     0.200000        29121         1.25
      26.559     0.300000        43713         1.43
      32.527     0.400000        58245         1.67
      38.111     0.500000        72834         2.00
      41.983     0.550000        80066         2.22
      46.815     0.600000        87365         2.50
      50.911     0.650000        94598         2.86
      56.191     0.700000       101880         3.33
      64.991     0.750000       109150         4.00
      70.783     0.775000       112792         4.44
      75.071     0.800000       116457         5.00
      79.423     0.825000       120067         5.71
      84.223     0.850000       123699         6.67
      89.471     0.875000       127361         8.00
      93.567     0.887500       129191         8.89
      96.191     0.900000       131013        10.00
      99.199     0.912500       132824        11.43
     101.183     0.925000       134612        13.33
     103.039     0.937500       136433        16.00
     104.063     0.943750       137380        17.78
     105.151     0.950000       138280        20.00
     106.239     0.956250       139201        22.86
     107.263     0.962500       140092        26.67
     108.735     0.968750       141001        32.00
     109.375     0.971875       141460        35.56
     110.079     0.975000       141887        40.00
     111.231     0.978125       142359        45.71
     112.191     0.981250       142820        53.33
     113.023     0.984375       143276        64.00
     113.535     0.985938       143479        71.11
     114.175     0.987500       143709        80.00
     115.071     0.989062       143945        91.43
     115.583     0.990625       144164       106.67
     116.095     0.992188       144409       128.00
     116.287     0.992969       144512       142.22
     116.543     0.993750       144630       160.00
     116.799     0.994531       144740       182.86
     117.119     0.995313       144846       213.33
     117.631     0.996094       144958       256.00
     118.015     0.996484       145014       284.44
     118.335     0.996875       145075       320.00
     118.975     0.997266       145132       365.71
     119.487     0.997656       145185       426.67
     119.935     0.998047       145251       512.00
     120.127     0.998242       145273       568.89
     120.383     0.998437       145299       640.00
     120.639     0.998633       145329       731.43
     120.959     0.998828       145359       853.33
     121.471     0.999023       145384      1024.00
     121.663     0.999121       145402      1137.78
     121.855     0.999219       145420      1280.00
     121.919     0.999316       145426      1462.86
     122.175     0.999414       145443      1706.67
     122.367     0.999512       145456      2048.00
     122.559     0.999561       145463      2275.56
     122.687     0.999609       145470      2560.00
     122.815     0.999658       145479      2925.71
     122.879     0.999707       145483      3413.33
     122.943     0.999756       145491      4096.00
     123.007     0.999780       145495      4551.11
     123.071     0.999805       145500      5120.00
     123.135     0.999829       145503      5851.43
     123.199     0.999854       145508      6826.67
     123.199     0.999878       145508      8192.00
     123.263     0.999890       145510      9102.22
     123.327     0.999902       145511     10240.00
     123.391     0.999915       145514     11702.86
     123.455     0.999927       145515     13653.33
     123.519     0.999939       145517     16384.00
     123.583     0.999945       145518     18204.44
     123.583     0.999951       145518     20480.00
     123.647     0.999957       145520     23405.71
     123.647     0.999963       145520     27306.67
     123.711     0.999969       145521     32768.00
     123.775     0.999973       145522     36408.89
     123.775     0.999976       145522     40960.00
     123.775     0.999979       145522     46811.43
     123.967     0.999982       145523     54613.33
     123.967     0.999985       145523     65536.00
     124.095     0.999986       145524     72817.78
     124.095     0.999988       145524     81920.00
     124.095     0.999989       145524     93622.86
     124.095     0.999991       145524    109226.67
     124.095     0.999992       145524    131072.00
     124.159     0.999993       145525    145635.56
     124.159     1.000000       145525          inf
